File: bi1   18.02.20  02:54:24
Comment: bi1
                    P1Y374-L                                P1Y373-R                                
Time[secs]          Force[N]            Time[secs]          Force[N]            
       0.000         429.030                   0.000         600.000            
       0.005         423.360                   0.005         592.800            
       0.010         419.580                   0.010         590.400            
       0.015         427.140                   0.015         578.400            
       0.020         423.360                   0.020         573.600            
       0.025         427.140                   0.025         571.200            
       0.030         427.140                   0.030         556.800            
       0.035         427.140                   0.035         559.200            
       0.040         430.920                   0.040         556.800            
       0.045         438.480                   0.045         542.400            
       0.050         442.260                   0.050         544.800            
       0.055         446.040                   0.055         540.000            
       0.060         453.600                   0.060         540.000            
       0.065         457.380                   0.065         528.000            
       0.070         472.500                   0.070         528.000            
       0.075         487.050                   0.075         530.400            
       0.080         489.600                   0.080         525.980            
       0.085         502.350                   0.085         528.190            
       0.090         510.000                   0.090         534.820            
       0.095         522.750                   0.095         528.190            
       0.100         530.400                   0.100         523.770            
       0.105         545.700                   0.105         525.980            
       0.110         555.900                   0.110         525.980            
       0.115         568.650                   0.115         530.400            
       0.120         578.850                   0.120         534.820            
       0.125         589.050                   0.125         539.240            
       0.130         601.800                   0.130         541.450            
       0.135         606.900                   0.135         541.450            
       0.140         619.650                   0.140         548.080            
       0.145         637.500                   0.145         552.500            
       0.150         644.960                   0.150         572.500            
       0.155         656.080                   0.155         556.470            
       0.160         667.200                   0.160         563.340            
       0.165         675.540                   0.165         558.760            
       0.170         683.880                   0.170         561.050            
       0.175         692.220                   0.175         558.760            
       0.180         695.000                   0.180         558.760            
       0.185         692.220                   0.185         551.890            
       0.190         695.000                   0.190         551.890            
       0.195         695.000                   0.195         540.440            
       0.200         686.660                   0.200         533.570            
       0.205         689.440                   0.205         526.700            
       0.210         675.540                   0.210         522.120            
       0.215         672.760                   0.215         506.090            
       0.220         658.860                   0.220         496.930            
       0.225         662.500                   0.225         500.000            
       0.230         641.300                   0.230         484.000            
       0.235         633.350                   0.235         472.000            
       0.240         633.350                   0.240         470.000            
       0.245         620.100                   0.245         450.000            
       0.250         617.450                   0.250         440.000            
       0.255         614.800                   0.255         426.000            
       0.260         612.150                   0.260         412.000            
       0.265         604.200                   0.265         406.000            
       0.270         598.900                   0.270         392.000            
       0.275         593.600                   0.275         390.000            
       0.280         596.250                   0.280         384.000            
       0.285         593.600                   0.285         372.000            
       0.290         588.300                   0.290         364.000            
       0.295         596.250                   0.295         362.000            
       0.300         597.740                   0.300         358.600            
       0.305         583.220                   0.305         353.710            
       0.310         585.640                   0.310         352.080            
       0.315         588.060                   0.315         352.080            
       0.320         585.640                   0.320         352.080            
       0.325         592.900                   0.325         348.820            
       0.330         590.480                   0.330         348.820            
       0.335         588.060                   0.335         348.820            
       0.340         590.480                   0.340         356.970            
       0.345         590.480                   0.345         361.860            
       0.350         595.320                   0.350         366.750            
       0.355         605.000                   0.355         376.530            
       0.360         592.900                   0.360         384.680            
       0.365         605.000                   0.365         391.200            
       0.370         605.000                   0.370         407.500            
       0.375         622.500                   0.375         418.320            
       0.380         612.500                   0.380         433.440            
       0.385         622.500                   0.385         446.040            
       0.390         622.500                   0.390         456.120            
       0.395         625.000                   0.395         476.280            
       0.400         620.000                   0.400         491.400            
       0.405         620.000                   0.405         506.520            
       0.410         605.000                   0.410         524.160            
       0.415         617.500                   0.415         546.840            
       0.420         607.500                   0.420         559.440            
       0.425         597.500                   0.425         577.080            
       0.430         585.000                   0.430         584.640            
       0.435         577.500                   0.435         607.320            
       0.440         570.000                   0.440         619.920            
       0.445         555.000                   0.445         630.000            
       0.450         555.000                   0.450         642.600            
       0.455         537.240                   0.455         653.400            
       0.460         521.700                   0.460         656.100            
       0.465         510.600                   0.465         658.800            
       0.470         499.500                   0.470         664.200            
       0.475         486.180                   0.475         669.600            
       0.480         477.300                   0.480         669.600            
       0.485         459.540                   0.485         675.000            
       0.490         452.880                   0.490         675.000            
       0.495         441.780                   0.495         672.300            
       0.500         428.460                   0.500         672.300            
       0.505         419.580                   0.505         669.600            
       0.510         417.360                   0.510         664.200            
       0.515         408.480                   0.515         658.800            
       0.520         404.040                   0.520         658.800            
       0.525         392.500                   0.525         657.500            
       0.530         384.650                   0.530         649.610            
       0.535         379.940                   0.535         646.980            
       0.540         384.650                   0.540         641.720            
       0.545         367.380                   0.545         641.720            
       0.550         359.530                   0.550         636.460            
       0.555         361.100                   0.555         631.200            
       0.560         359.530                   0.560         625.940            
       0.565         359.530                   0.565         625.940            
       0.570         361.100                   0.570         623.310            
       0.575         361.100                   0.575         615.420            
       0.580         359.530                   0.580         620.680            
       0.585         361.100                   0.585         618.050            
       0.590         364.240                   0.590         612.790            
       0.595         372.090                   0.595         604.900            
       0.600         381.480                   0.600         617.500            
       0.605         375.870                   0.605         607.620            
       0.610         387.090                   0.610         605.150            
       0.615         387.090                   0.615         600.210            
       0.620         390.830                   0.620         602.680            
       0.625         398.310                   0.625         597.740            
       0.630         402.050                   0.630         582.920            
       0.635         402.050                   0.635         585.390            
       0.640         417.010                   0.640         585.390            
       0.645         426.360                   0.645         580.450            
       0.650         428.230                   0.650         577.980            
       0.655         439.450                   0.655         577.980            
       0.660         443.190                   0.660         573.040            
       0.665         461.890                   0.665         577.980            
       0.670         467.500                   0.670         573.040            
       0.675         485.460                   0.675         580.000            
       0.680         488.070                   0.680         573.040            
       0.685         506.340                   0.685         568.400            
       0.690         527.220                   0.690         575.360            
       0.695         532.440                   0.695         575.360            
       0.700         550.710                   0.700         573.040            
       0.705         561.150                   0.705         575.360            
       0.710         576.810                   0.710         573.040            
       0.715         592.470                   0.715         580.000            
       0.720         608.130                   0.720         570.720            
       0.725         615.960                   0.725         573.040            
       0.730         634.230                   0.730         575.360            
       0.735         642.060                   0.735         580.000            
       0.740         644.670                   0.740         580.000            
       0.745         652.500                   0.745         580.000            
       0.750         652.500                   0.750         585.000            
       0.755         652.500                   0.755         575.640            
       0.760         649.890                   0.760         573.300            
       0.765         647.280                   0.765         570.960            
       0.770         647.280                   0.770         570.960            
       0.775         642.060                   0.775         566.280            
       0.780         629.010                   0.780         554.580            
       0.785         629.010                   0.785         542.880            
       0.790         623.790                   0.790         535.860            
       0.795         613.350                   0.795         533.520            
       0.800         602.910                   0.800         521.820            
       0.805         600.300                   0.805         512.460            
       0.810         592.470                   0.810         503.100            
       0.815         592.470                   0.815         498.420            
       0.820         579.420                   0.820         491.400            
       0.825         580.000                   0.825         492.500            
       0.830         570.720                   0.830         484.620            
       0.835         559.120                   0.835         478.710            
       0.840         561.440                   0.840         474.770            
       0.845         552.160                   0.845         474.770            
       0.850         549.840                   0.850         470.830            
       0.855         549.840                   0.855         468.860            
       0.860         545.200                   0.860         470.830            
       0.865         540.560                   0.865         466.890            
       0.870         535.920                   0.870         466.890            
       0.875         531.280                   0.875         468.860            
       0.880         531.280                   0.880         470.830            
       0.885         531.280                   0.885         466.890            
       0.890         526.640                   0.890         468.860            
       0.895         528.960                   0.895         474.770            
       0.900         530.000                   0.900         481.750            
       0.905         517.280                   0.905         477.050            
       0.910         519.400                   0.910         484.100            
       0.915         517.280                   0.915         484.100            
       0.920         513.040                   0.920         486.450            
       0.925         521.520                   0.925         498.200            
       0.930         510.920                   0.930         502.900            
       0.935         508.800                   0.935         512.300            
       0.940         504.560                   0.940         524.050            
       0.945         502.440                   0.945         531.100            
       0.950         508.800                   0.950         542.850            
       0.955         508.800                   0.955         564.000            
       0.960         506.680                   0.960         559.300            
       0.965         504.560                   0.965         568.700            
       0.970         502.440                   0.970         587.500            
       0.975         512.500                   0.975         597.840            
       0.980         502.250                   0.980         603.480            
       0.985         494.050                   0.985         614.760            
       0.990         489.950                   0.990         620.400            
       0.995         489.950                   0.995         626.040            
       1.000         485.850                   1.000         637.320            
       1.005         481.750                   1.005         648.600            
       1.010         471.500                   1.010         654.240            
       1.015         467.400                   1.015         665.520            
       1.020         467.400                   1.020         671.160            
       1.025         459.200                   1.025         676.800            
       1.030         453.050                   1.030         682.440            
       1.035         446.900                   1.035         693.720            
       1.040         448.950                   1.040         705.000            
       1.045         440.750                   1.045         705.000            
       1.050         447.500                   1.050         722.240            
       1.055         431.390                   1.055         722.240            
       1.060         429.600                   1.060         725.200            
       1.065         429.600                   1.065         728.160            
       1.070         417.070                   1.070         731.120            
       1.075         411.700                   1.075         731.120            
       1.080         417.070                   1.080         734.080            
       1.085         404.540                   1.085         740.000            
       1.090         392.010                   1.090         734.080            
       1.095         393.800                   1.095         737.040            
       1.100         388.430                   1.100         734.080            
       1.105         381.270                   1.105         740.000            
       1.110         379.480                   1.110         740.000            
       1.115         372.320                   1.115         734.080            
       1.120         368.740                   1.120         725.200            
       1.125         380.000                   1.125         730.000            
       1.130         364.800                   1.130         724.160            
       1.135         364.800                   1.135         718.320            
       1.140         358.720                   1.140         712.480            
       1.145         358.720                   1.145         712.480            
       1.150         358.720                   1.150         709.560            
       1.155         354.160                   1.155         697.880            
       1.160         349.600                   1.160         694.960            
       1.165         354.160                   1.165         686.200            
       1.170         358.720                   1.170         689.120            
       1.175         354.160                   1.175         686.200            
       1.180         351.120                   1.180         680.360            
       1.185         351.120                   1.185         677.440            
       1.190         358.720                   1.190         677.440            
       1.195         361.760                   1.195         668.680            
       1.200         374.400                   1.200         677.500            
       1.205         374.400                   1.205         669.370            
       1.210         382.200                   1.210         658.530            
       1.215         391.950                   1.215         658.530            
