File: bi3   18.02.20  02:55:36
Comment: bi3
                    P1Y374-L                                P1Y373-R                                
Time[secs]          Force[N]            Time[secs]          Force[N]            
       0.000         553.040                   0.000         531.050            
       0.005         550.810                   0.005         528.900            
       0.010         553.040                   0.010         528.900            
       0.015         553.040                   0.015         526.750            
       0.020         548.580                   0.020         526.750            
       0.025         550.810                   0.025         537.500            
       0.030         548.580                   0.030         533.200            
       0.035         557.500                   0.035         533.200            
       0.040         548.580                   0.040         533.200            
       0.045         550.810                   0.045         531.050            
       0.050         550.810                   0.050         528.900            
       0.055         548.580                   0.055         531.050            
       0.060         553.040                   0.060         533.200            
       0.065         546.350                   0.065         531.050            
       0.070         548.580                   0.070         528.900            
       0.075         553.500                   0.075         533.200            
       0.080         551.250                   0.080         531.050            
       0.085         551.250                   0.085         528.900            
       0.090         562.500                   0.090         528.900            
       0.095         551.250                   0.095         528.900            
       0.100         549.000                   0.100         528.900            
       0.105         551.250                   0.105         531.050            
       0.110         555.750                   0.110         528.900            
       0.115         555.750                   0.115         537.500            
       0.120         553.500                   0.120         533.200            
       0.125         553.500                   0.125         528.900            
       0.130         551.250                   0.130         533.200            
       0.135         555.750                   0.135         528.900            
       0.140         553.500                   0.140         531.050            
       0.145         553.500                   0.145         526.750            
       0.150         565.000                   0.150         540.000            
       0.155         553.700                   0.155         531.360            
       0.160         551.440                   0.160         524.880            
       0.165         555.960                   0.165         529.200            
       0.170         553.700                   0.170         529.200            
       0.175         555.960                   0.175         529.200            
       0.180         555.960                   0.180         527.040            
       0.185         555.960                   0.185         524.880            
       0.190         553.700                   0.190         527.040            
       0.195         558.220                   0.195         524.880            
       0.200         558.220                   0.200         524.880            
       0.205         565.000                   0.205         524.880            
       0.210         558.220                   0.210         516.240            
       0.215         560.480                   0.215         527.040            
       0.220         560.480                   0.220         524.880            
       0.225         572.500                   0.225         527.500            
       0.230         556.470                   0.230         521.170            
       0.235         561.050                   0.235         514.840            
       0.240         565.630                   0.240         519.060            
       0.245         563.340                   0.245         516.950            
       0.250         565.630                   0.250         523.280            
       0.255         565.630                   0.255         514.840            
       0.260         567.920                   0.260         521.170            
       0.265         572.500                   0.265         514.840            
       0.270         572.500                   0.270         521.170            
       0.275         565.630                   0.275         519.060            
       0.280         572.500                   0.280         521.170            
       0.285         567.920                   0.285         519.060            
       0.290         567.920                   0.290         519.060            
       0.295         567.920                   0.295         516.950            
       0.300         577.500                   0.300         522.500            
       0.305         568.260                   0.305         514.140            
       0.310         568.260                   0.310         518.320            
       0.315         568.260                   0.315         516.230            
       0.320         572.880                   0.320         512.050            
       0.325         570.570                   0.325         516.230            
       0.330         565.950                   0.330         518.320            
       0.335         568.260                   0.335         518.320            
       0.340         565.950                   0.340         516.230            
       0.345         570.570                   0.345         518.320            
       0.350         570.570                   0.350         518.320            
       0.355         565.950                   0.355         518.320            
       0.360         565.950                   0.360         518.320            
       0.365         568.260                   0.365         516.230            
       0.370         565.950                   0.370         514.140            
       0.375         577.500                   0.375         520.800            
       0.380         563.640                   0.380         518.700            
       0.385         565.950                   0.385         514.500            
       0.390         563.640                   0.390         516.600            
       0.395         563.640                   0.395         520.800            
       0.400         565.950                   0.400         512.400            
       0.405         570.570                   0.405         516.600            
       0.410         565.950                   0.410         514.500            
       0.415         565.950                   0.415         525.000            
       0.420         563.640                   0.420         514.500            
       0.425         563.640                   0.425         514.500            
       0.430         563.640                   0.430         508.200            
       0.435         563.640                   0.435         516.600            
       0.440         561.330                   0.440         514.500            
       0.445         565.950                   0.445         506.100            
       0.450         572.880                   0.450         520.000            
       0.455         568.260                   0.455         511.680            
       0.460         563.640                   0.460         515.840            
       0.465         563.640                   0.465         509.600            
       0.470         565.950                   0.470         515.840            
       0.475         563.640                   0.475         515.840            
       0.480         568.260                   0.480         515.840            
       0.485         565.950                   0.485         511.680            
       0.490         565.950                   0.490         511.680            
       0.495         568.260                   0.495         520.000            
       0.500         568.260                   0.500         513.760            
       0.505         577.500                   0.505         515.840            
       0.510         568.260                   0.510         511.680            
       0.515         570.570                   0.515         515.840            
       0.520         570.570                   0.520         509.600            
       0.525         568.100                   0.525         518.700            
       0.530         565.800                   0.530         514.500            
       0.535         568.100                   0.535         525.000            
       0.540         568.100                   0.540         512.400            
       0.545         570.400                   0.545         516.600            
       0.550         570.400                   0.550         514.500            
       0.555         568.100                   0.555         512.400            
       0.560         575.000                   0.560         512.400            
       0.565         570.400                   0.565         516.600            
       0.570         575.000                   0.570         518.700            
       0.575         568.100                   0.575         506.100            
       0.580         570.400                   0.580         518.700            
       0.585         575.000                   0.585         508.200            
       0.590         575.000                   0.590         516.600            
       0.595         563.500                   0.595         512.400            
       0.600         577.500                   0.600         515.840            
       0.605         565.950                   0.605         511.680            
       0.610         570.570                   0.610         511.680            
       0.615         568.260                   0.615         513.760            
       0.620         565.950                   0.620         509.600            
       0.625         568.260                   0.625         509.600            
       0.630         570.570                   0.630         520.000            
       0.635         570.570                   0.635         511.680            
       0.640         570.570                   0.640         513.760            
       0.645         570.570                   0.645         511.680            
       0.650         577.500                   0.650         509.600            
       0.655         570.570                   0.655         511.680            
       0.660         572.880                   0.660         509.600            
       0.665         577.500                   0.665         503.360            
       0.670         577.500                   0.670         503.360            
       0.675         585.000                   0.675         510.000            
       0.680         577.980                   0.680         503.880            
       0.685         575.640                   0.685         505.920            
       0.690         575.640                   0.690         505.920            
       0.695         577.980                   0.695         503.880            
       0.700         573.300                   0.700         499.800            
       0.705         573.300                   0.705         501.840            
       0.710         575.640                   0.710         503.880            
       0.715         577.980                   0.715         501.840            
       0.720         575.640                   0.720         503.880            
       0.725         575.640                   0.725         499.800            
       0.730         575.640                   0.730         503.880            
       0.735         573.300                   0.735         503.880            
       0.740         570.960                   0.740         505.920            
       0.745         573.300                   0.745         501.840            
       0.750         585.000                   0.750         501.410            
       0.755         575.640                   0.755         507.500            
       0.760         573.300                   0.760         503.440            
       0.765         570.960                   0.765         501.410            
       0.770         570.960                   0.770         497.350            
       0.775         568.620                   0.775         497.350            
       0.780         561.600                   0.780         503.440            
       0.785         570.960                   0.785         501.410            
       0.790         575.640                   0.790         503.440            
       0.795         573.300                   0.795         499.380            
       0.800         570.960                   0.800         499.380            
       0.805         580.320                   0.805         499.380            
       0.810         575.640                   0.810         491.260            
       0.815         575.640                   0.815         497.350            
       0.820         570.960                   0.820         493.290            
       0.825         582.800                   0.825         500.960            
       0.830         587.500                   0.830         505.000            
       0.835         573.400                   0.835         500.960            
       0.840         575.750                   0.840         498.940            
       0.845         573.400                   0.845         498.940            
       0.850         575.750                   0.850         498.940            
       0.855         578.100                   0.855         500.960            
       0.860         575.750                   0.860         500.960            
       0.865         578.100                   0.865         498.940            
       0.870         575.750                   0.870         496.920            
       0.875         573.400                   0.875         498.940            
       0.880         580.450                   0.880         498.940            
       0.885         578.100                   0.885         494.900            
       0.890         575.750                   0.890         498.940            
       0.895         582.800                   0.895         500.960            
       0.900         582.500                   0.900         500.000            
       0.905         570.850                   0.905         500.000            
       0.910         570.850                   0.910         492.000            
       0.915         577.840                   0.915         496.000            
       0.920         575.510                   0.920         496.000            
       0.925         575.510                   0.925         492.000            
       0.930         570.850                   0.930         494.000            
       0.935         568.520                   0.935         494.000            
       0.940         573.180                   0.940         492.000            
       0.945         568.520                   0.945         496.000            
       0.950         573.180                   0.950         492.000            
       0.955         575.510                   0.955         492.000            
       0.960         573.180                   0.960         494.000            
       0.965         570.850                   0.965         494.000            
       0.970         570.850                   0.970         494.000            
       0.975         580.000                   0.975         496.470            
       0.980         566.080                   0.980         494.460            
       0.985         573.040                   0.985         498.480            
       0.990         570.720                   0.990         494.460            
       0.995         570.720                   0.995         494.460            
       1.000         568.400                   1.000         492.450            
       1.005         566.080                   1.005         496.470            
       1.010         566.080                   1.010         498.480            
       1.015         575.360                   1.015         502.500            
       1.020         568.400                   1.020         496.470            
       1.025         568.400                   1.025         496.470            
       1.030         566.080                   1.030         494.460            
       1.035         566.080                   1.035         494.460            
       1.040         566.080                   1.040         498.480            
       1.045         575.360                   1.045         502.500            
       1.050         572.500                   1.050         496.000            
       1.055         567.920                   1.055         492.000            
       1.060         567.920                   1.060         500.000            
       1.065         565.630                   1.065         492.000            
       1.070         565.630                   1.070         494.000            
       1.075         572.500                   1.075         496.000            
       1.080         572.500                   1.080         494.000            
       1.085         567.920                   1.085         490.000            
       1.090         567.920                   1.090         496.000            
       1.095         563.340                   1.095         492.000            
       1.100         567.920                   1.100         492.000            
       1.105         561.050                   1.105         490.000            
       1.110         563.340                   1.110         492.000            
       1.115         561.050                   1.115         492.000            
       1.120         565.630                   1.120         492.000            
       1.125         572.500                   1.125         491.040            
       1.130         565.630                   1.130         491.040            
       1.135         567.920                   1.135         489.060            
       1.140         558.760                   1.140         483.120            
       1.145         561.050                   1.145         487.080            
       1.150         563.340                   1.150         489.060            
       1.155         561.050                   1.155         489.060            
       1.160         563.340                   1.160         483.120            
       1.165         563.340                   1.165         489.060            
       1.170         561.050                   1.170         495.000            
       1.175         558.760                   1.175         481.140            
       1.180         563.340                   1.180         489.060            
       1.185         563.340                   1.185         481.140            
       1.190         558.760                   1.190         489.060            
       1.195         561.050                   1.195         483.120            
       1.200         572.500                   1.200         500.000            
       1.205         563.340                   1.205         486.000            
       1.210         563.340                   1.210         484.000            
       1.215         561.050                   1.215         490.000            
