File: ul1   18.02.20  02:58:30
Comment: ul1
                    P1Y374-L                                P1Y373-R                                
Time[secs]          Force[N]            Time[secs]          Force[N]            
       0.000         884.000                   0.000         260.000            
       0.005         892.000                   0.005         244.400            
       0.010         904.000                   0.010         231.920            
       0.015         920.000                   0.015         217.360            
       0.020         932.000                   0.020         204.880            
       0.025         936.000                   0.025         196.560            
       0.030         952.000                   0.030         182.000            
       0.035         948.000                   0.035         174.720            
       0.040         960.000                   0.040         162.240            
       0.045         968.000                   0.045         159.120            
       0.050         972.000                   0.050         142.480            
       0.055         976.000                   0.055         134.160            
       0.060         992.000                   0.060         121.680            
       0.065         992.000                   0.065         116.480            
       0.070        1000.000                   0.070         114.400            
       0.075        1003.450                   0.075         110.000            
       0.080        1003.450                   0.080         102.080            
       0.085        1016.260                   0.085          97.240            
       0.090        1024.800                   0.090          92.400            
       0.095        1024.800                   0.095          82.280            
       0.100        1024.800                   0.100          77.440            
       0.105        1033.340                   0.105          74.800            
       0.110        1033.340                   0.110          67.320            
       0.115        1037.610                   0.115          39.600            
       0.120        1041.880                   0.120          37.400            
       0.125        1041.880                   0.125          39.600            
       0.130        1041.880                   0.130          37.400            
       0.135        1050.420                   0.135          39.600            
       0.140        1058.960                   0.140          34.760            
       0.145        1067.500                   0.145          32.120            
       0.150        1084.160                   0.150          40.000            
       0.155        1079.680                   0.155          37.440            
       0.160        1084.160                   0.160          34.880            
       0.165        1093.120                   0.165          37.440            
       0.170        1102.080                   0.170          32.480            
       0.175        1102.080                   0.175          34.880            
       0.180        1102.080                   0.180          34.880            
       0.185        1111.040                   0.185          34.880            
       0.190        1120.000                   0.190          32.480            
       0.195        1115.520                   0.195          32.480            
       0.200        1115.520                   0.200          37.440            
       0.205        1120.000                   0.205          32.480            
       0.210        1106.560                   0.210          37.440            
       0.215        1102.080                   0.215          29.920            
       0.220        1097.600                   0.220          32.480            
       0.225        1100.000                   0.225          37.500            
       0.230        1095.600                   0.230          30.000            
       0.235        1082.400                   0.235          32.400            
       0.240        1082.400                   0.240          37.500            
       0.245        1078.000                   0.245          32.400            
       0.250        1073.600                   0.250          27.450            
       0.255        1069.200                   0.255          30.000            
       0.260        1069.200                   0.260          27.450            
       0.265        1069.200                   0.265          34.950            
       0.270        1069.200                   0.270          30.000            
       0.275        1069.200                   0.275          27.450            
       0.280        1064.800                   0.280          27.450            
       0.285        1064.800                   0.285          27.450            
       0.290        1064.800                   0.290          30.000            
       0.295        1064.800                   0.295          24.900            
       0.300        1074.060                   0.300          35.000            
       0.305        1065.220                   0.305          29.960            
       0.310        1069.640                   0.310          27.440            
       0.315        1069.640                   0.315          29.960            
       0.320        1078.480                   0.320          24.920            
       0.325        1087.320                   0.325          24.920            
       0.330        1087.320                   0.330          27.440            
       0.335        1087.320                   0.335          29.960            
       0.340        1087.320                   0.340          24.920            
       0.345        1091.740                   0.345          29.960            
       0.350        1096.160                   0.350          22.400            
       0.355        1096.160                   0.355          27.440            
       0.360        1096.160                   0.360          27.440            
       0.365        1105.000                   0.365          22.400            
       0.370        1100.580                   0.370          19.880            
       0.375        1106.560                   0.375          30.000            
       0.380        1102.080                   0.380          24.960            
       0.385        1106.560                   0.385          19.920            
       0.390        1106.560                   0.390          22.440            
       0.395        1106.560                   0.395          22.440            
       0.400        1106.560                   0.400          22.440            
       0.405        1106.560                   0.405          24.960            
       0.410        1106.560                   0.410          19.920            
       0.415        1111.040                   0.415          17.400            
       0.420        1106.560                   0.420          22.440            
       0.425        1106.560                   0.425          22.440            
       0.430        1115.520                   0.430          17.400            
       0.435        1111.040                   0.435          22.440            
       0.440        1111.040                   0.440          22.440            
       0.445        1120.000                   0.445          24.960            
       0.450        1117.500                   0.450          27.500            
       0.455        1108.560                   0.455          22.440            
       0.460        1108.560                   0.460          17.490            
       0.465        1104.090                   0.465          17.490            
       0.470        1104.090                   0.470          17.490            
       0.475        1104.090                   0.475          14.960            
       0.480        1099.620                   0.480          14.960            
       0.485        1095.150                   0.485          19.910            
       0.490        1090.680                   0.490          19.910            
       0.495        1086.210                   0.495          19.910            
       0.500        1086.210                   0.500          19.910            
       0.505        1081.740                   0.505          24.970            
       0.510        1081.740                   0.510          17.490            
       0.515        1081.740                   0.515          14.960            
       0.520        1081.740                   0.520          19.910            
       0.525        1087.500                   0.525          27.500            
       0.530        1078.800                   0.530          17.490            
       0.535        1087.500                   0.535          22.440            
       0.540        1083.150                   0.540          17.490            
       0.545        1078.800                   0.545          14.960            
       0.550        1078.800                   0.550          17.490            
       0.555        1078.800                   0.555          14.960            
       0.560        1078.800                   0.560           9.900            
       0.565        1078.800                   0.565          14.960            
       0.570        1078.800                   0.570          12.430            
       0.575        1078.800                   0.575          12.430            
       0.580        1078.800                   0.580          17.490            
       0.585        1078.800                   0.585          14.960            
       0.590        1078.800                   0.590          14.960            
       0.595        1078.800                   0.595          12.430            
       0.600        1095.000                   0.600          20.000            
       0.605        1081.860                   0.605          14.960            
       0.610        1086.240                   0.610          14.960            
       0.615        1086.240                   0.615          12.480            
       0.620        1081.860                   0.620          17.440            
       0.625        1081.860                   0.625          12.480            
       0.630        1081.860                   0.630           7.440            
       0.635        1081.860                   0.635          12.480            
       0.640        1086.240                   0.640           7.440            
       0.645        1081.860                   0.645          10.000            
       0.650        1081.860                   0.650          10.000            
       0.655        1081.860                   0.655          10.000            
       0.660        1086.240                   0.660          10.000            
       0.665        1081.860                   0.665          14.960            
       0.670        1081.860                   0.670           7.440            
       0.675        1087.500                   0.675          17.500            
       0.680        1083.150                   0.680          12.460            
       0.685        1078.800                   0.685           7.490            
       0.690        1074.450                   0.690          14.980            
       0.695        1087.500                   0.695           7.490            
       0.700        1078.800                   0.700           9.940            
       0.705        1078.800                   0.705           9.940            
       0.710        1074.450                   0.710           4.970            
       0.715        1074.450                   0.715          14.980            
       0.720        1078.800                   0.720           2.450            
       0.725        1078.800                   0.725           4.970            
       0.730        1070.100                   0.730           7.490            
       0.735        1078.800                   0.735           7.490            
       0.740        1074.450                   0.740           2.450            
       0.745        1083.150                   0.745           7.490            
       0.750        1090.000                   0.750          12.500            
       0.755        1081.280                   0.755           7.500            
       0.760        1081.280                   0.760           5.000            
       0.765        1081.280                   0.765           0.000            
       0.770        1076.920                   0.770           5.000            
       0.775        1068.200                   0.775           5.000            
       0.780        1068.200                   0.780          10.000            
       0.785        1059.480                   0.785           2.500            
       0.790        1050.760                   0.790           2.500            
       0.795        1046.400                   0.795           0.000            
       0.800        1042.040                   0.800           2.500            
       0.805        1033.320                   0.805           7.500            
       0.810        1028.960                   0.810           0.000            
       0.815        1024.600                   0.815           2.500            
       0.820        1020.240                   0.820           0.000            
       0.825        1022.500                   0.825           5.000            
       0.830        1014.320                   0.830           0.000            
       0.835        1010.230                   0.835           0.000            
       0.840        1006.140                   0.840           0.000            
       0.845        1006.140                   0.845           0.000            
       0.850        1002.050                   0.850           0.000            
       0.855        1002.050                   0.855           2.500            
       0.860         997.960                   0.860           0.000            
       0.865         997.960                   0.865           0.000            
       0.870        1002.050                   0.870           0.000            
       0.875         993.870                   0.875           2.500            
       0.880         997.960                   0.880           0.000            
       0.885        1002.050                   0.885           0.000            
       0.890        1002.050                   0.890           2.500            
       0.895        1002.050                   0.895           0.000            
       0.900        1009.360                   0.900           5.000            
       0.905         997.150                   0.905           0.000            
       0.910        1001.220                   0.910           0.000            
       0.915        1005.290                   0.915           0.000            
       0.920        1005.290                   0.920           0.000            
       0.925         997.150                   0.925           0.000            
       0.930        1001.220                   0.930           0.000            
       0.935        1001.220                   0.935           0.000            
       0.940        1001.220                   0.940           0.000            
       0.945        1005.290                   0.945           0.000            
       0.950        1009.360                   0.950           0.000            
       0.955        1009.360                   0.955           0.000            
       0.960        1013.430                   0.960           0.000            
       0.965        1009.360                   0.965           0.000            
       0.970        1017.500                   0.970           0.000            
       0.975        1015.980                   0.975           5.000            
       0.980        1011.850                   0.980           0.000            
       0.985        1015.980                   0.985           5.000            
       0.990        1015.980                   0.990           0.000            
       0.995        1015.980                   0.995           0.000            
       1.000        1015.980                   1.000           0.000            
       1.005        1024.240                   1.005           0.000            
       1.010        1015.980                   1.010           0.000            
       1.015        1015.980                   1.015          10.000            
       1.020        1024.240                   1.020           0.000            
       1.025        1024.240                   1.025           0.000            
       1.030        1024.240                   1.030           0.000            
       1.035        1028.370                   1.035           0.000            
       1.040        1032.500                   1.040           0.000            
       1.045        1024.240                   1.045           0.000            
       1.050        1036.800                   1.050           2.500            
       1.055        1032.480                   1.055           0.000            
       1.060        1032.480                   1.060           0.000            
       1.065        1036.800                   1.065           0.000            
       1.070        1041.120                   1.070           0.000            
       1.075        1045.440                   1.075           0.000            
       1.080        1049.760                   1.080           0.000            
       1.085        1058.400                   1.085           0.000            
       1.090        1062.720                   1.090           0.000            
       1.095        1067.040                   1.095           0.000            
       1.100        1071.360                   1.100           0.000            
       1.105        1071.360                   1.105           0.000            
       1.110        1080.000                   1.110           2.500            
       1.115        1080.000                   1.115           0.000            
       1.120        1080.000                   1.120           0.000            
       1.125        1097.500                   1.125           0.000            
       1.130        1084.330                   1.130           0.000            
       1.135        1088.720                   1.135           0.000            
       1.140        1088.720                   1.140           0.000            
       1.145        1088.720                   1.145           0.000            
       1.150        1088.720                   1.150           0.000            
       1.155        1088.720                   1.155           0.000            
       1.160        1088.720                   1.160           0.000            
       1.165        1088.720                   1.165           0.000            
       1.170        1088.720                   1.170           2.500            
       1.175        1084.330                   1.175           0.000            
       1.180        1084.330                   1.180           0.000            
       1.185        1084.330                   1.185           0.000            
       1.190        1084.330                   1.190           0.000            
       1.195        1084.330                   1.195           0.000            
       1.200        1092.500                   1.200           0.000            
       1.205        1079.390                   1.205           0.000            
       1.210        1079.390                   1.210           0.000            
       1.215        1075.020                   1.215           0.000            
