File: ul3   18.02.20  02:59:11
Comment: ul3
                    P1Y374-L                                P1Y373-R                                
Time[secs]          Force[N]            Time[secs]          Force[N]            
       0.000        1043.040                   0.000           0.000            
       0.005        1034.560                   0.005           0.000            
       0.010        1038.800                   0.010           2.450            
       0.015        1047.280                   0.015           0.000            
       0.020        1043.040                   0.020           0.000            
       0.025        1047.280                   0.025           0.000            
       0.030        1047.280                   0.030          17.500            
       0.035        1051.520                   0.035           0.000            
       0.040        1047.280                   0.040           0.000            
       0.045        1060.000                   0.045           0.000            
       0.050        1047.280                   0.050           0.000            
       0.055        1055.760                   0.055           0.000            
       0.060        1051.520                   0.060           0.000            
       0.065        1051.520                   0.065           0.000            
       0.070        1051.520                   0.070           2.450            
       0.075        1061.440                   0.075           2.500            
       0.080        1057.160                   0.080           0.000            
       0.085        1057.160                   0.085           0.000            
       0.090        1057.160                   0.090           0.000            
       0.095        1057.160                   0.095           0.000            
       0.100        1052.880                   0.100           0.000            
       0.105        1057.160                   0.105           0.000            
       0.110        1061.440                   0.110           0.000            
       0.115        1061.440                   0.115           0.000            
       0.120        1057.160                   0.120           0.000            
       0.125        1061.440                   0.125           0.000            
       0.130        1070.000                   0.130           2.500            
       0.135        1061.440                   0.135           0.000            
       0.140        1065.720                   0.140           0.000            
       0.145        1065.720                   0.145           0.000            
       0.150        1063.920                   0.150           7.500            
       0.155        1072.500                   0.155           0.000            
       0.160        1063.920                   0.160           2.490            
       0.165        1059.630                   0.165           2.490            
       0.170        1059.630                   0.170           2.490            
       0.175        1055.340                   0.175           2.490            
       0.180        1051.050                   0.180           0.000            
       0.185        1055.340                   0.185           2.490            
       0.190        1051.050                   0.190           2.490            
       0.195        1046.760                   0.195           0.000            
       0.200        1046.760                   0.200           0.000            
       0.205        1059.630                   0.205           2.490            
       0.210        1051.050                   0.210           0.000            
       0.215        1046.760                   0.215           7.500            
       0.220        1046.760                   0.220           0.000            
       0.225        1057.500                   0.225           7.500            
       0.230        1044.810                   0.230           0.000            
       0.235        1049.040                   0.235           4.980            
       0.240        1044.810                   0.240           0.000            
       0.245        1044.810                   0.245           2.490            
       0.250        1049.040                   0.250           0.000            
       0.255        1044.810                   0.255           7.500            
       0.260        1053.270                   0.260           0.000            
       0.265        1044.810                   0.265           0.000            
       0.270        1049.040                   0.270           0.000            
       0.275        1044.810                   0.275           0.000            
       0.280        1049.040                   0.280           0.000            
       0.285        1044.810                   0.285           0.000            
       0.290        1049.040                   0.290           0.000            
       0.295        1049.040                   0.295           2.490            
       0.300        1055.760                   0.300           7.500            
       0.305        1047.280                   0.305           0.000            
       0.310        1047.280                   0.310           0.000            
       0.315        1047.280                   0.315           2.490            
       0.320        1047.280                   0.320           0.000            
       0.325        1043.040                   0.325           0.000            
       0.330        1051.520                   0.330           0.000            
       0.335        1047.280                   0.335           0.000            
       0.340        1051.520                   0.340           2.490            
       0.345        1047.280                   0.345           0.000            
       0.350        1047.280                   0.350           0.000            
       0.355        1060.000                   0.355           0.000            
       0.360        1051.520                   0.360           4.980            
       0.365        1051.520                   0.365           0.000            
       0.370        1047.280                   0.370           2.490            
       0.375        1060.000                   0.375           7.500            
       0.380        1047.280                   0.380           0.000            
       0.385        1060.000                   0.385           0.000            
       0.390        1047.280                   0.390           2.490            
       0.395        1051.520                   0.395           4.980            
       0.400        1047.280                   0.400           0.000            
       0.405        1047.280                   0.405           0.000            
       0.410        1047.280                   0.410           0.000            
       0.415        1060.000                   0.415           0.000            
       0.420        1043.040                   0.420           4.980            
       0.425        1043.040                   0.425           0.000            
       0.430        1047.280                   0.430           0.000            
       0.435        1043.040                   0.435           0.000            
       0.440        1038.800                   0.440           2.490            
       0.445        1038.800                   0.445           4.980            
       0.450        1052.500                   0.450          10.000            
       0.455        1039.870                   0.455           5.000            
       0.460        1035.660                   0.460           0.000            
       0.465        1039.870                   0.465           0.000            
       0.470        1039.870                   0.470           2.480            
       0.475        1031.450                   0.475           0.000            
       0.480        1035.660                   0.480           0.000            
       0.485        1035.660                   0.485           2.480            
       0.490        1035.660                   0.490           0.000            
       0.495        1027.240                   0.495           2.480            
       0.500        1027.240                   0.500           0.000            
       0.505        1031.450                   0.505           2.480            
       0.510        1031.450                   0.510           0.000            
       0.515        1031.450                   0.515           0.000            
       0.520        1031.450                   0.520           2.480            
       0.525        1033.350                   0.525           7.500            
       0.530        1025.050                   0.530           0.000            
       0.535        1025.050                   0.535           0.000            
       0.540        1016.750                   0.540           0.000            
       0.545        1020.900                   0.545           2.490            
       0.550        1020.900                   0.550           0.000            
       0.555        1020.900                   0.555           4.980            
       0.560        1025.050                   0.560           2.490            
       0.565        1025.050                   0.565           4.980            
       0.570        1029.200                   0.570           0.000            
       0.575        1029.200                   0.575           0.000            
       0.580        1029.200                   0.580           4.980            
       0.585        1020.900                   0.585           0.000            
       0.590        1029.200                   0.590           0.000            
       0.595        1037.500                   0.595           0.000            
       0.600        1037.500                   0.600           5.000            
       0.605        1033.350                   0.605           5.000            
       0.610        1029.200                   0.610           0.000            
       0.615        1029.200                   0.615           0.000            
       0.620        1029.200                   0.620           0.000            
       0.625        1029.200                   0.625           0.000            
       0.630        1029.200                   0.630           2.500            
       0.635        1029.200                   0.635           0.000            
       0.640        1029.200                   0.640           0.000            
       0.645        1025.050                   0.645           2.500            
       0.650        1033.350                   0.650           2.500            
       0.655        1029.200                   0.655           2.500            
       0.660        1029.200                   0.660           0.000            
       0.665        1029.200                   0.665           2.500            
       0.670        1029.200                   0.670           2.500            
       0.675        1037.500                   0.675           7.500            
       0.680        1029.200                   0.680           2.490            
       0.685        1029.200                   0.685           0.000            
       0.690        1033.350                   0.690           0.000            
       0.695        1029.200                   0.695           0.000            
       0.700        1037.500                   0.700           0.000            
       0.705        1033.350                   0.705           0.000            
       0.710        1029.200                   0.710           0.000            
       0.715        1033.350                   0.715           0.000            
       0.720        1029.200                   0.720           2.490            
       0.725        1025.050                   0.725           0.000            
       0.730        1020.900                   0.730           0.000            
       0.735        1029.200                   0.735           0.000            
       0.740        1020.900                   0.740           0.000            
       0.745        1020.900                   0.745           0.000            
       0.750        1032.500                   0.750           7.500            
       0.755        1015.980                   0.755           4.980            
       0.760        1024.240                   0.760           0.000            
       0.765        1024.240                   0.765           4.980            
       0.770        1024.240                   0.770           2.490            
       0.775        1020.110                   0.775           0.000            
       0.780        1024.240                   0.780           0.000            
       0.785        1024.240                   0.785           0.000            
       0.790        1020.110                   0.790           0.000            
       0.795        1015.980                   0.795           2.490            
       0.800        1024.240                   0.800           0.000            
       0.805        1024.240                   0.805           2.490            
       0.810        1020.110                   0.810           0.000            
       0.815        1015.980                   0.815           4.980            
       0.820        1024.240                   0.820           2.490            
       0.825        1023.390                   0.825          10.000            
       0.830        1027.500                   0.830           2.480            
       0.835        1019.280                   0.835           0.000            
       0.840        1019.280                   0.840           2.480            
       0.845        1019.280                   0.845           2.480            
       0.850        1019.280                   0.850           0.000            
       0.855        1023.390                   0.855           0.000            
       0.860        1027.500                   0.860           0.000            
       0.865        1019.280                   0.865          10.000            
       0.870        1027.500                   0.870           0.000            
       0.875        1023.390                   0.875           2.480            
       0.880        1023.390                   0.880           0.000            
       0.885        1019.280                   0.885           0.000            
       0.890        1023.390                   0.890           0.000            
       0.895        1019.280                   0.895           7.480            
       0.900        1030.860                   0.900          10.000            
       0.905        1022.580                   0.905           5.000            
       0.910        1026.720                   0.910           2.480            
       0.915        1022.580                   0.915           2.480            
       0.920        1026.720                   0.920           2.480            
       0.925        1030.860                   0.925           7.480            
       0.930        1030.860                   0.930           2.480            
       0.935        1022.580                   0.935           0.000            
       0.940        1026.720                   0.940           2.480            
       0.945        1026.720                   0.945           0.000            
       0.950        1030.860                   0.950           0.000            
       0.955        1035.000                   0.955           0.000            
       0.960        1026.720                   0.960           0.000            
       0.965        1030.860                   0.965           0.000            
       0.970        1026.720                   0.970           0.000            
       0.975        1034.160                   0.975           7.500            
       0.980        1029.990                   0.980           2.490            
       0.985        1034.160                   0.985           0.000            
       0.990        1034.160                   0.990           0.000            
       0.995        1034.160                   0.995           0.000            
       1.000        1034.160                   1.000           0.000            
       1.005        1034.160                   1.005           0.000            
       1.010        1034.160                   1.010           2.490            
       1.015        1034.160                   1.015           2.490            
       1.020        1038.330                   1.020           2.490            
       1.025        1034.160                   1.025           0.000            
       1.030        1038.330                   1.030           2.490            
       1.035        1042.500                   1.035           0.000            
       1.040        1038.330                   1.040           4.980            
       1.045        1042.500                   1.045           0.000            
       1.050        1047.500                   1.050          10.000            
       1.055        1039.120                   1.055           2.480            
       1.060        1043.310                   1.060           5.000            
       1.065        1034.930                   1.065           0.000            
       1.070        1039.120                   1.070           0.000            
       1.075        1039.120                   1.075           0.000            
       1.080        1039.120                   1.080           5.000            
       1.085        1039.120                   1.085           5.000            
       1.090        1039.120                   1.090           2.480            
       1.095        1039.120                   1.095           0.000            
       1.100        1039.120                   1.100           5.000            
       1.105        1039.120                   1.105           0.000            
       1.110        1034.930                   1.110           7.480            
       1.115        1039.120                   1.115           5.000            
       1.120        1030.740                   1.120           5.000            
       1.125        1040.000                   1.125           7.500            
       1.130        1031.680                   1.130           0.000            
       1.135        1031.680                   1.135           0.000            
       1.140        1031.680                   1.140           7.500            
       1.145        1023.360                   1.145           2.490            
       1.150        1027.520                   1.150           4.980            
       1.155        1023.360                   1.155           0.000            
       1.160        1023.360                   1.160           4.980            
       1.165        1023.360                   1.165           0.000            
       1.170        1027.520                   1.170           2.490            
       1.175        1023.360                   1.175           2.490            
       1.180        1019.200                   1.180           0.000            
       1.185        1023.360                   1.185           2.490            
       1.190        1023.360                   1.190           0.000            
       1.195        1023.360                   1.195           0.000            
       1.200        1035.840                   1.200           7.500            
       1.205        1031.680                   1.205           0.000            
       1.210        1023.360                   1.210           2.490            
       1.215        1023.360                   1.215           0.000            
