File: ursf1   13.11.19  02:45:06
Comment: ursf1
                    P1V325-L                                P1V322-R                                
Time[secs]          Force[N]            Time[secs]          Force[N]            
       0.000           0.000                   0.000         490.000            
       0.005           0.000                   0.005         484.120            
       0.010           0.000                   0.010         482.160            
       0.015           0.000                   0.015         484.120            
       0.020           0.000                   0.020         484.120            
       0.025           0.000                   0.025         484.120            
       0.030           0.000                   0.030         482.160            
       0.035           0.000                   0.035         484.120            
       0.040           0.000                   0.040         484.120            
       0.045           0.000                   0.045         484.120            
       0.050           0.000                   0.050         484.120            
       0.055           0.000                   0.055         478.240            
       0.060           0.000                   0.060         478.240            
       0.065           0.000                   0.065         478.240            
       0.070           0.000                   0.070         482.160            
       0.075           0.000                   0.075         492.500            
       0.080           0.000                   0.080         480.680            
       0.085           0.000                   0.085         484.620            
       0.090           0.000                   0.090         478.710            
       0.095           0.000                   0.095         480.680            
       0.100           0.000                   0.100         480.680            
       0.105           0.000                   0.105         480.680            
       0.110           0.000                   0.110         484.620            
       0.115           0.000                   0.115         480.680            
       0.120           0.000                   0.120         492.500            
       0.125           0.000                   0.125         478.710            
       0.130           0.000                   0.130         480.680            
       0.135           0.000                   0.135         484.620            
       0.140           0.000                   0.140         486.590            
       0.145           0.000                   0.145         486.590            
       0.150           0.000                   0.150         490.000            
       0.155           0.000                   0.155         484.120            
       0.160           0.000                   0.160         484.120            
       0.165           0.000                   0.165         482.160            
       0.170           0.000                   0.170         484.120            
       0.175           0.000                   0.175         484.120            
       0.180           0.000                   0.180         482.160            
       0.185           0.000                   0.185         482.160            
       0.190           0.000                   0.190         482.160            
       0.195           0.000                   0.195         476.280            
       0.200           0.000                   0.200         482.160            
       0.205           0.000                   0.205         484.120            
       0.210           0.000                   0.210         476.280            
       0.215           0.000                   0.215         478.240            
       0.220           0.000                   0.220         482.160            
       0.225           0.000                   0.225         483.120            
       0.230           0.000                   0.230         487.080            
       0.235           0.000                   0.235         481.140            
       0.240           0.000                   0.240         477.180            
       0.245           0.000                   0.245         479.160            
       0.250           0.000                   0.250         481.140            
       0.255           0.000                   0.255         479.160            
       0.260           0.000                   0.260         483.120            
       0.265           0.000                   0.265         479.160            
       0.270           0.000                   0.270         483.120            
       0.275           0.000                   0.275         483.120            
       0.280           0.000                   0.280         487.080            
       0.285           0.000                   0.285         489.060            
       0.290           0.000                   0.290         495.000            
       0.295           0.000                   0.295         489.060            
       0.300           0.000                   0.300         497.500            
       0.305           0.000                   0.305         489.540            
       0.310           0.000                   0.310         491.530            
       0.315           0.000                   0.315         489.540            
       0.320           0.000                   0.320         489.540            
       0.325           0.000                   0.325         485.560            
       0.330           0.000                   0.330         485.560            
       0.335           0.000                   0.335         483.570            
       0.340           0.000                   0.340         489.540            
       0.345           0.000                   0.345         485.560            
       0.350           0.000                   0.350         483.570            
       0.355           0.000                   0.355         485.560            
       0.360           0.000                   0.360         479.590            
       0.365           0.000                   0.365         481.580            
       0.370           0.000                   0.370         475.610            
       0.375           0.000                   0.375         478.640            
       0.380           0.000                   0.380         470.920            
       0.385           0.000                   0.385         468.990            
       0.390           0.000                   0.390         468.990            
       0.395           0.000                   0.395         468.990            
       0.400           0.000                   0.400         468.990            
       0.405           0.000                   0.405         467.060            
       0.410           0.000                   0.410         468.990            
       0.415           0.000                   0.415         468.990            
       0.420           0.000                   0.420         468.990            
       0.425           0.000                   0.425         468.990            
       0.430           0.000                   0.430         470.920            
       0.435           0.000                   0.435         476.710            
       0.440           0.000                   0.440         476.710            
       0.445           0.000                   0.445         482.500            
       0.450           0.000                   0.450         487.080            
       0.455           0.000                   0.455         481.140            
       0.460           0.000                   0.460         481.140            
       0.465           0.000                   0.465         487.080            
       0.470           0.000                   0.470         483.120            
       0.475           0.000                   0.475         495.000            
       0.480           0.000                   0.480         487.080            
       0.485           0.000                   0.485         483.120            
       0.490           0.000                   0.490         487.080            
       0.495           0.000                   0.495         487.080            
       0.500           0.000                   0.500         487.080            
       0.505           0.000                   0.505         487.080            
       0.510           0.000                   0.510         487.080            
       0.515           0.000                   0.515         483.120            
       0.520           0.000                   0.520         487.080            
       0.525           0.000                   0.525         497.500            
       0.530           0.000                   0.530         489.540            
       0.535           0.000                   0.535         485.560            
       0.540           0.000                   0.540         485.560            
       0.545           0.000                   0.545         481.580            
       0.550           0.000                   0.550         483.570            
       0.555           0.000                   0.555         481.580            
       0.560           0.000                   0.560         483.570            
       0.565           0.000                   0.565         483.570            
       0.570           0.000                   0.570         483.570            
       0.575           0.000                   0.575         481.580            
       0.580           0.000                   0.580         481.580            
       0.585           0.000                   0.585         481.580            
       0.590           0.000                   0.590         475.610            
       0.595           0.000                   0.595         475.610            
       0.600           0.000                   0.600         485.000            
       0.605           0.000                   0.605         477.240            
       0.610           0.000                   0.610         473.360            
       0.615           0.000                   0.615         471.420            
       0.620           0.000                   0.620         469.480            
       0.625           0.000                   0.625         465.600            
       0.630           0.000                   0.630         463.660            
       0.635           0.000                   0.635         461.720            
       0.640           0.000                   0.640         461.720            
       0.645           0.000                   0.645         453.960            
       0.650           0.000                   0.650         453.960            
       0.655           0.000                   0.655         446.200            
       0.660           0.000                   0.660         459.780            
       0.665           0.000                   0.665         446.200            
       0.670           0.000                   0.670         438.440            
       0.675           0.000                   0.675         447.500            
       0.680           0.000                   0.680         438.550            
       0.685           0.000                   0.685         429.600            
       0.690           0.000                   0.690         434.970            
       0.695           0.000                   0.695         424.230            
       0.700           0.000                   0.700         424.230            
       0.705           0.000                   0.705         422.440            
       0.710           0.000                   0.710         418.860            
       0.715           0.000                   0.715         426.020            
       0.720           0.000                   0.720         422.440            
       0.725           0.000                   0.725         429.600            
       0.730           0.000                   0.730         431.390            
       0.735           0.000                   0.735         434.970            
       0.740           0.000                   0.740         438.550            
       0.745           0.000                   0.745         436.760            
       0.750           0.000                   0.750         446.500            
       0.755           0.000                   0.755         440.800            
       0.760           0.000                   0.760         444.600            
       0.765           0.000                   0.765         448.400            
       0.770           0.000                   0.770         456.000            
       0.775           0.000                   0.775         459.800            
       0.780           0.000                   0.780         456.000            
       0.785           0.000                   0.785         454.100            
       0.790           0.000                   0.790         454.100            
       0.795           0.000                   0.795         461.700            
       0.800           0.000                   0.800         461.700            
       0.805           0.000                   0.805         463.600            
       0.810           0.000                   0.810         467.400            
       0.815           0.000                   0.815         475.000            
       0.820           0.000                   0.820         475.000            
       0.825           0.000                   0.825         486.000            
       0.830           0.000                   0.830         490.500            
       0.835           0.000                   0.835         490.500            
       0.840           0.000                   0.840         501.750            
       0.845           0.000                   0.845         499.500            
       0.850           0.000                   0.850         504.000            
       0.855           0.000                   0.855         510.750            
       0.860           0.000                   0.860         519.750            
       0.865           0.000                   0.865         519.750            
       0.870           0.000                   0.870         528.750            
       0.875           0.000                   0.875         533.250            
       0.880           0.000                   0.880         542.250            
       0.885           0.000                   0.885         546.750            
       0.890           0.000                   0.890         553.500            
       0.895           0.000                   0.895         562.500            
       0.900           0.000                   0.900         582.610            
       0.905           0.000                   0.905         579.740            
       0.910           0.000                   0.910         591.220            
       0.915           0.000                   0.915         602.700            
       0.920           0.000                   0.920         617.050            
       0.925           0.000                   0.925         625.660            
       0.930           0.000                   0.930         637.140            
       0.935           0.000                   0.935         648.620            
       0.940           0.000                   0.940         660.100            
       0.945           0.000                   0.945         674.450            
       0.950           0.000                   0.950         683.060            
       0.955           0.000                   0.955         688.800            
       0.960           0.000                   0.960         700.280            
       0.965           0.000                   0.965         708.890            
       0.970           0.000                   0.970         717.500            
       0.975           0.000                   0.975         729.560            
       0.980           0.000                   0.980         729.560            
       0.985           0.000                   0.985         738.530            
       0.990           0.000                   0.990         738.530            
       0.995           0.000                   0.995         744.510            
       1.000           0.000                   1.000         747.500            
       1.005           0.000                   1.005         747.500            
       1.010           0.000                   1.010         747.500            
       1.015           0.000                   1.015         747.500            
       1.020           0.000                   1.020         735.540            
       1.025           0.000                   1.025         729.560            
       1.030           0.000                   1.030         726.570            
       1.035           0.000                   1.035         717.600            
       1.040           0.000                   1.040         705.640            
       1.045           0.000                   1.045         696.670            
       1.050           0.000                   1.050         685.000            
       1.055           0.000                   1.055         668.560            
       1.060           0.000                   1.060         649.380            
       1.065           0.000                   1.065         635.680            
       1.070           0.000                   1.070         619.240            
       1.075           0.000                   1.075         602.800            
       1.080           0.000                   1.080         580.880            
       1.085           0.000                   1.085         561.700            
       1.090           0.000                   1.090         539.780            
       1.095           0.000                   1.095         515.120            
       1.100           0.000                   1.100         487.720            
       1.105           0.000                   1.105         465.800            
       1.110           0.000                   1.110         432.920            
       1.115           0.000                   1.115         397.300            
       1.120           0.000                   1.120         358.940            
       1.125           0.000                   1.125         332.500            
       1.130           0.000                   1.130         281.960            
       1.135           0.000                   1.135         239.400            
       1.140           0.000                   1.140         188.860            
       1.145           0.000                   1.145         134.330            
       1.150           0.000                   1.150          89.110            
       1.155           0.000                   1.155          51.870            
       1.160           0.000                   1.160           1.330            
       1.165           0.000                   1.165           0.000            
       1.170           0.000                   1.170           0.000            
       1.175           0.000                   1.175           0.000            
       1.180           0.000                   1.180           0.000            
       1.185           0.000                   1.185           0.000            
       1.190           0.000                   1.190           0.000            
       1.195           0.000                   1.195           0.000            
       1.200           0.000                   1.200           0.000            
       1.205           0.000                   1.205           0.000            
       1.210           0.000                   1.210           2.490            
       1.215           0.000                   1.215           2.490            
